%wavelength  flradiance
0.3754    0.0587
0.3761    0.0587
0.3768    0.0587
0.3776    0.0587
0.3783    0.0587
0.3790    0.1101
0.3798    0.1101
0.3805    0.1101
0.3812    0.1101
0.3819    0.1101
0.3827    0.1101
0.3834    0.1101
0.3841    0.1615
0.3849    0.1615
0.3856    0.1615
0.3863    0.1615
0.3871    0.1615
0.3878    0.1615
0.3885    0.1615
0.3893    0.2569
0.3900    0.2569
0.3907    0.2569
0.3915    0.2569
0.3922    0.2569
0.3929    0.2569
0.3937    0.2569
0.3944    0.3083
0.3951    0.3083
0.3958    0.3083
0.3966    0.3083
0.3973    0.3083
0.3980    0.3083
0.3988    0.3670
0.3995    0.3670
0.4002    0.3670
0.4010    0.3670
0.4017    0.3670
0.4024    0.3670
0.4032    0.3670
0.4039    0.4917
0.4046    0.4917
0.4054    0.4917
0.4061    0.4917
0.4068    0.4917
0.4075    0.4917
0.4083    0.4917
0.4090    1.5413
0.4097    1.5413
0.4105    1.5413
0.4112    1.5413
0.4119    1.5413
0.4127    0.5872
0.4134    0.5872
0.4141    0.5872
0.4149    0.5872
0.4156    0.5872
0.4163    0.5872
0.4171    0.5872
0.4178    0.5651
0.4185    0.5651
0.4193    0.5651
0.4200    0.5651
0.4207    0.5651
0.4214    0.5651
0.4222    0.5651
0.4229    0.5651
0.4236    0.6165
0.4244    0.6165
0.4251    0.6165
0.4258    0.6165
0.4266    0.6165
0.4273    0.6165
0.4280    0.6165
0.4288    0.6752
0.4295    0.6752
0.4302    0.6752
0.4310    0.6752
0.4317    0.6752
0.4324    0.6752
0.4332    0.6752
0.4339    0.7339
0.4346    0.7339
0.4353    0.7339
0.4361    0.7339
0.4368    0.7339
0.4375    0.7339
0.4383    3.5156
0.4390    3.5156
0.4397    3.5156
0.4405    3.5156
0.4412    3.5156
0.4419    3.5156
0.4427    1.3945
0.4434    1.3945
0.4441    1.3945
0.4449    1.3945
0.4456    1.3945
0.4463    1.3945
0.4470    0.9101
0.4478    0.9101
0.4485    0.9101
0.4492    0.9101
0.4500    0.9101
0.4507    0.9101
0.4514    0.9101
0.4522    0.9101
0.4529    0.9101
0.4536    0.9615
0.4544    0.9615
0.4551    0.9615
0.4558    0.9615
0.4566    0.9615
0.4573    0.9615
0.4580    0.9615
0.4588    1.0055
0.4595    1.0055
0.4602    1.0055
0.4609    1.0055
0.4617    1.0055
0.4624    1.0055
0.4631    1.0422
0.4639    1.0422
0.4646    1.0422
0.4653    1.0422
0.4661    1.0422
0.4668    1.0422
0.4675    1.0422
0.4683    1.0716
0.4690    1.0716
0.4697    1.0716
0.4705    1.0716
0.4712    1.0716
0.4719    1.0716
0.4726    1.0716
0.4734    1.0936
0.4741    1.0936
0.4748    1.0936
0.4756    1.0936
0.4763    1.0936
0.4770    1.0936
0.4778    1.0936
0.4785    1.1083
0.4792    1.1083
0.4800    1.1083
0.4807    1.1083
0.4814    1.1083
0.4822    1.1083
0.4829    1.1156
0.4836    1.1156
0.4844    1.1156
0.4851    1.1156
0.4858    1.1156
0.4865    1.1156
0.4873    1.1156
0.4880    1.1156
0.4887    1.1156
0.4895    1.1156
0.4902    1.1156
0.4909    1.1156
0.4917    1.1009
0.4924    1.1009
0.4931    1.1009
0.4939    1.1009
0.4946    1.1009
0.4953    1.1009
0.4961    1.1009
0.4968    1.0862
0.4975    1.0862
0.4982    1.0862
0.4990    1.0862
0.4997    1.0862
0.5004    1.0862
0.5012    1.0862
0.5019    1.0716
0.5026    1.0716
0.5034    1.0716
0.5041    1.0716
0.5048    1.0716
0.5056    1.0716
0.5063    1.0716
0.5070    1.0569
0.5078    1.0569
0.5085    1.0569
0.5092    1.0569
0.5100    1.0569
0.5107    1.0569
0.5114    1.0422
0.5121    1.0422
0.5129    1.0422
0.5136    1.0422
0.5143    1.0422
0.5151    1.0422
0.5158    1.0422
0.5165    1.0202
0.5173    1.0202
0.5180    1.0202
0.5187    1.0202
0.5195    1.0202
0.5202    1.0202
0.5209    1.0202
0.5217    1.0202
0.5224    1.0202
0.5231    1.0202
0.5239    1.0202
0.5246    1.0202
0.5253    1.0202
0.5260    1.0202
0.5268    1.0055
0.5275    1.0055
0.5282    1.0055
0.5290    1.0055
0.5297    1.0055
0.5304    1.0055
0.5312    1.0055
0.5319    0.9908
0.5326    0.9908
0.5334    0.9908
0.5341    0.9908
0.5348    0.9908
0.5356    0.9908
0.5363    0.9835
0.5370    0.9835
0.5377    0.9835
0.5385    0.9835
0.5392    0.9835
0.5399    0.9835
0.5407    0.9835
0.5414    0.9761
0.5421    0.9761
0.5429    0.9761
0.5436    0.9761
0.5443    0.9761
0.5451    0.9761
0.5458    0.9761
0.5465    0.9761
0.5473    2.3486
0.5480    2.3486
0.5487    2.3486
0.5495    2.3486
0.5502    2.3486
0.5509    2.3486
0.5516    1.3578
0.5524    1.3578
0.5531    1.3578
0.5538    1.3578
0.5546    1.3578
0.5553    1.3578
0.5560    0.9908
0.5568    0.9908
0.5575    0.9908
0.5582    0.9908
0.5590    0.9908
0.5597    0.9908
0.5604    0.9908
0.5612    0.9908
0.5619    0.9908
0.5626    1.0055
0.5633    1.0055
0.5641    1.0055
0.5648    1.0055
0.5655    1.0055
0.5663    1.0055
0.5670    1.0055
0.5677    1.0128
0.5685    1.0128
0.5692    1.0128
0.5699    1.0128
0.5707    1.0128
0.5714    1.0128
0.5721    1.0275
0.5729    1.0275
0.5736    1.0275
0.5743    1.0275
0.5751    1.0275
0.5758    1.0275
0.5765    1.0275
0.5772    1.2330
0.5780    1.2330
0.5787    1.2330
0.5794    1.2330
0.5802    1.2330
0.5809    1.2330
0.5816    1.2330
0.5824    1.3358
0.5831    1.3358
0.5838    1.3358
0.5846    1.3358
0.5853    1.3358
0.5860    1.0275
0.5868    1.0275
0.5875    1.0275
0.5882    1.0275
0.5889    1.0275
0.5897    1.0275
0.5904    1.0275
0.5911    1.0275
0.5919    1.0202
0.5926    1.0202
0.5933    1.0202
0.5941    1.0202
0.5948    1.0202
0.5955    0.9982
0.5963    0.9908
0.5970    0.9908
0.5977    0.9908
0.5985    0.9908
0.5992    0.9908
0.5999    0.9908
0.6007    0.9761
0.6014    0.9761
0.6021    0.9761
0.6028    0.9761
0.6036    0.9761
0.6043    0.9761
0.6050    0.9761
0.6058    0.9468
0.6065    0.9468
0.6072    0.9468
0.6080    0.9468
0.6087    0.9468
0.6094    0.9468
0.6102    0.9468
0.6109    0.9248
0.6116    0.9248
0.6124    0.9248
0.6131    0.9248
0.6138    0.9248
0.6146    0.9248
0.6153    0.9248
0.6160    0.9101
0.6167    0.9101
0.6175    0.9101
0.6182    0.9101
0.6189    0.9101
0.6197    0.9101
0.6204    0.8881
0.6211    0.8881
0.6219    0.8881
0.6226    0.8881
0.6233    0.8881
0.6241    0.8881
0.6248    0.8881
0.6255    0.8734
0.6263    0.8734
0.6270    0.8734
0.6277    0.8734
0.6284    0.8734
0.6292    0.8734
0.6299    0.8734
0.6306    0.8587
0.6314    0.8587
0.6321    0.8587
0.6328    0.8587
0.6336    0.8587
0.6343    0.8587
0.6350    0.8587
0.6358    0.8367
0.6365    0.8367
0.6372    0.8367
0.6380    0.8367
0.6387    0.8367
0.6394    0.8367
0.6402    0.8294
0.6409    0.8073
0.6416    0.8073
0.6423    0.8073
0.6431    0.8073
0.6438    0.8073
0.6445    0.8073
0.6453    0.8000
0.6460    0.8000
0.6467    0.8000
0.6475    0.8000
0.6482    0.8000
0.6489    0.8000
0.6497    0.8000
0.6504    0.8000
0.6511    0.8000
0.6519    0.8000
0.6526    0.8000
0.6533    0.8000
0.6540    0.8000
0.6548    0.8000
0.6555    0.8000
0.6562    0.8073
0.6570    0.8073
0.6577    0.8073
0.6584    0.8073
0.6592    0.8073
0.6599    0.8073
0.6606    0.7927
0.6614    0.7927
0.6621    0.7927
0.6628    0.7927
0.6636    0.7927
0.6643    0.7927
0.6650    0.6899
0.6658    0.6899
0.6665    0.6899
0.6672    0.6899
0.6679    0.6899
0.6687    0.6899
0.6694    0.6899
0.6701    0.5798
0.6709    0.5798
0.6716    0.5798
0.6723    0.5798
0.6731    0.5798
0.6738    0.5798
0.6745    0.5798
0.6753    0.5138
0.6760    0.5138
0.6767    0.5138
0.6775    0.5138
0.6782    0.5138
0.6789    0.5138
0.6796    0.5138
0.6804    0.4697
0.6811    0.4697
0.6818    0.4697
0.6826    0.4697
0.6833    0.4697
0.6840    0.4697
0.6848    0.4330
0.6855    0.4330
0.6862    0.4330
0.6870    0.4330
0.6877    0.4330
0.6884    0.4330
0.6892    0.4330
0.6899    0.4037
0.6906    0.4037
0.6914    0.4037
0.6921    0.4037
0.6928    0.4037
0.6935    0.4037
0.6943    0.4037
0.6950    0.3670
0.6957    0.3670
0.6965    0.3670
0.6972    0.3670
0.6979    0.3670
0.6987    0.3670
0.6994    0.3670
0.7001    0.3303
0.7009    0.3303
0.7016    0.3303
0.7023    0.3303
0.7031    0.3303
0.7038    0.3303
0.7045    0.3303
0.7053    0.3009
0.7060    0.3009
0.7067    0.3009
0.7074    0.3009
0.7082    0.3009
0.7089    0.3009
0.7096    0.2789
0.7104    0.2789
0.7111    0.2789
0.7118    0.2789
0.7126    0.2789
0.7133    0.2789
0.7140    0.2789
0.7148    0.2495
0.7155    0.2495
0.7162    0.2495
0.7170    0.2495
0.7177    0.2495
0.7184    0.2495
0.7191    0.2495
0.7199    0.2202
0.7206    0.2202
0.7213    0.2202
0.7221    0.2202
0.7228    0.2202
0.7235    0.2202
0.7243    0.2202
0.7250         0
